File: Xie_cube150_Slump.csv
SiO2;Al2O3;Fe2O3;CaO;MgO;Na2O;K2O;SO3;Fine modulus (m2/kg);Specific gravity;Cement (kg/m3);FA (kg/m3);GGBFS (kg/m3);Coarse aggregate (kg/m3);Fine aggregate (kg/m3);Total aggregates (kg/m3);Na2SiO3 (liquid);NaOH (liquid);Total solution;Na2O (l);SiO2 (l);Superplasticizer;water -eff;Initial curing time (day);Initial curing temp (Â°C);28-d cubic compressive strength (MPa);Slump (mm)
60;22,7;4,6;4,5;1;0,7;2;0,5;350;2,4;0;480;0;960;720;1680;36;204;36;8,2;27;0;127,776;2;90;50,5723;188
53,59;28,46;8,71;4,23;1,84;0,58;1,63;0,96;272;2,33;0;310;0;1204;649;1853;122;49;122,1428571;16,2;34,72;6,2;92,982;1;80;44,876;80
47,594;23,906;7,58;15,918;1,668;0,52;1,456;0,768;279;2,488;62;248;0;1204;649;1853;122;49;122,1428571;16,2;34,72;6,2;92,982;1;80;64,7107;55
52,295;24,571;3,215;12,58;3,242;0,154;0,245;0,27;393,8;2,389;0;252;108;1090,8;774;1864,8;128,5714286;51,42857143;128,5714286;11,5;30;14,4;118,8257143;0;25;36,1631;102
52,295;24,571;3,215;12,58;3,242;0,154;0,245;0,27;393,8;2,389;0;294;126;966;810,6;1776,6;150;60;150;11,5;30;16,8;138,63;0;25;38,1285;100
52,295;24,571;3,215;12,58;3,242;0,154;0,245;0,27;393,8;2,389;0;315;135;972;760,5;1732,5;160,7142857;64,28571429;160,7142857;11,5;30;18;148,5321429;0;25;38,8889;92
49,69;23,918;2,87;15,44;3,906;0,132;0,21;0,36;398,4;2,462;0;216;144;1090,8;774;1864,8;128,5714286;51,42857143;128,5714286;11,5;30;14,4;118,8257143;0;25;48,006;136
49,69;23,918;2,87;15,44;3,906;0,132;0,21;0,36;398,4;2,462;0;252;168;966;810,6;1776,6;150;60;150;11,5;30;16,8;138,63;0;25;51,4246;115
49,69;23,918;2,87;15,44;3,906;0,132;0,21;0,36;398,4;2,462;0;270;180;972;760,5;1732,5;160,7142857;64,28571429;160,7142857;11,5;30;18;148,5321429;0;25;50,7843;106
47,085;23,265;2,525;18,3;4,57;0,11;0,175;0,45;403;2,535;0;180;180;1090,8;774;1864,8;128,5714286;51,42857143;128,5714286;11,5;30;14,4;118,8257143;0;25;59,6375;184
47,085;23,265;2,525;18,3;4,57;0,11;0,175;0,45;403;2,535;0;210;210;966;810,6;1776,6;150;60;150;11,5;30;16,8;138,63;0;25;60,419;162
47,085;23,265;2,525;18,3;4,57;0,11;0,175;0,45;403;2,535;0;225;225;972;760,5;1732,5;160,7142857;64,28571429;160,7142857;11,5;30;18;148,5321429;0;25;58,3333;111
52,295;24,571;3,215;12,58;3,242;0,154;0,245;0,27;393,8;2,389;0;252;108;1090,8;774;1864,8;128,5714286;51,42857143;128,5714286;11,5;30;14,4;118,8257143;1;60;42,5076;102
52,295;24,571;3,215;12,58;3,242;0,154;0,245;0,27;393,8;2,389;0;294;126;966;810,6;1776,6;150;60;150;11,5;30;16,8;138,63;1;60;43,6034;100
52,295;24,571;3,215;12,58;3,242;0,154;0,245;0,27;393,8;2,389;0;315;135;972;760,5;1732,5;160,7142857;64,28571429;160,7142857;11,5;30;18;148,5321429;1;60;44,3791;92
49,69;23,918;2,87;15,44;3,906;0,132;0,21;0,36;398,4;2,462;0;216;144;1090,8;774;1864,8;128,5714286;51,42857143;128,5714286;11,5;30;14,4;118,8257143;1;60;57,3112;136
49,69;23,918;2,87;15,44;3,906;0,132;0,21;0,36;398,4;2,462;0;252;168;966;810,6;1776,6;150;60;150;11,5;30;16,8;138,63;1;60;62,1788;115
49,69;23,918;2,87;15,44;3,906;0,132;0,21;0,36;398,4;2,462;0;270;180;972;760,5;1732,5;160,7142857;64,28571429;160,7142857;11,5;30;18;148,5321429;1;60;61,5359;106
47,085;23,265;2,525;18,3;4,57;0,11;0,175;0,45;403;2,535;0;180;180;1090,8;774;1864,8;128,5714286;51,42857143;128,5714286;11,5;30;14,4;118,8257143;1;60;65,3474;184
47,085;23,265;2,525;18,3;4,57;0,11;0,175;0,45;403;2,535;0;210;210;966;810,6;1776,6;150;60;150;11,5;30;16,8;138,63;1;60;63,5475;162
47,085;23,265;2,525;18,3;4,57;0,11;0,175;0,45;403;2,535;0;225;225;972;760,5;1732,5;160,7142857;64,28571429;160,7142857;11,5;30;18;148,5321429;1;60;61,9935;111
52,295;24,571;3,215;12,58;3,242;0,154;0,245;0,27;393,8;2,389;0;259;111;1081,558448;775,8415522;1857,4;118,9285714;47,57142857;118,9285714;11,5;30;14,8;110,8017857;0;25;34,31;100
52,295;24,571;3,215;12,58;3,242;0,154;0,245;0,27;393,8;2,389;0;287;123;1026,649881;769,150119;1795,8;131,7857143;52,71428571;131,7857143;11,5;30;16,4;122,7803571;0;25;36,24;120
52,295;24,571;3,215;12,58;3,242;0,154;0,245;0,27;393,8;2,389;0;315;135;971,9619525;760,5380475;1732,5;144,6428571;57,85714286;144,6428571;11,5;30;18;134,7589286;0;25;33,81;175
49,69;23,918;2,87;15,44;3,906;0,132;0,21;0,36;398,4;2,462;0;234;156;1057,564014;775,435986;1833;125,3571429;50,14285714;125,3571429;11,5;30;15,6;116,7910714;0;25;44,21;93
49,69;23,918;2,87;15,44;3,906;0,132;0,21;0,36;398,4;2,462;0;258;172;967,961046;795,038954;1763;138,2142857;55,28571429;138,2142857;11,5;30;17,2;128,7696429;0;25;46,01;117
47,085;23,265;2,525;18,3;4,57;0,11;0,175;0,45;403;2,535;0;185;185;1081,558448;775,8415522;1857,4;118,9285714;47,57142857;118,9285714;11,5;30;14,8;110,8017857;0;25;55,62;79
47,085;23,265;2,525;18,3;4,57;0,11;0,175;0,45;403;2,535;0;205;205;1026,649881;769,150119;1795,8;131,7857143;52,71428571;131,7857143;11,5;30;16,4;122,7803571;0;25;56,62;82
47,085;23,265;2,525;18,3;4,57;0,11;0,175;0,45;403;2,535;0;225;225;971,9619525;760,5380475;1732,5;144,6428571;57,85714286;144,6428571;11,5;30;18;134,7589286;0;25;48,91;96
52,295;24,571;3,215;12,58;3,242;0,154;0,245;0,27;393,8;2,389;0;273;117;1057,564014;775,435986;1833;139,2857143;55,71428571;139,2857143;11,5;30;15,6;128,7278571;0;25;37,18;119
52,295;24,571;3,215;12,58;3,242;0,154;0,245;0,27;393,8;2,389;0;301;129;967,961046;795,038954;1763;153,5714286;61,42857143;153,5714286;11,5;30;17,2;141,9307143;0;25;38,43;152
49,69;23,918;2,87;15,44;3,906;0,132;0,21;0,36;398,4;2,462;0;222;148;1081,558448;775,8415522;1857,4;132,1428571;52,85714286;132,1428571;11,5;30;14,8;122,1264286;0;25;48,47;103
49,69;23,918;2,87;15,44;3,906;0,132;0,21;0,36;398,4;2,462;0;246;164;1026,649881;769,150119;1795,8;146,4285714;58,57142857;146,4285714;11,5;30;16,4;135,3292857;0;25;50,43;113
49,69;23,918;2,87;15,44;3,906;0,132;0,21;0,36;398,4;2,462;0;270;180;971,9619525;760,5380475;1732,5;160,7142857;64,28571429;160,7142857;11,5;30;18;148,5321429;0;25;50,69;162
47,085;23,265;2,525;18,3;4,57;0,11;0,175;0,45;403;2,535;0;195;195;1057,564014;775,435986;1833;139,2857143;55,71428571;139,2857143;11,5;30;15,6;128,7278571;0;25;60,08;99
47,085;23,265;2,525;18,3;4,57;0,11;0,175;0,45;403;2,535;0;215;215;967,961046;795,038954;1763;153,5714286;61,42857143;153,5714286;11,5;30;17,2;141,9307143;0;25;59,75;108
52,295;24,571;3,215;12,58;3,242;0,154;0,245;0,27;393,8;2,389;0;259;111;1081,558448;775,8415522;1857,4;145,3571429;58,14285714;145,3571429;11,5;30;14,8;133,4510714;0;25;30,27;120
52,295;24,571;3,215;12,58;3,242;0,154;0,245;0,27;393,8;2,389;0;287;123;1026,649881;769,150119;1795,8;161,0714286;64,42857143;161,0714286;11,5;30;16,4;147,8782143;0;25;26,95;138
52,295;24,571;3,215;12,58;3,242;0,154;0,245;0,27;393,8;2,389;0;315;135;971,9619525;760,5380475;1732,5;176,7857143;70,71428571;176,7857143;11,5;30;18;162,3053571;0;25;25,71;195
49,69;23,918;2,87;15,44;3,906;0,132;0,21;0,36;398,4;2,462;0;234;156;1057,564014;775,435986;1833;153,2142857;61,28571429;153,2142857;11,5;30;15,6;140,6646429;0;25;45,75;123
49,69;23,918;2,87;15,44;3,906;0,132;0,21;0,36;398,4;2,462;0;258;172;967,961046;795,038954;1763;168,9285714;67,57142857;168,9285714;11,5;30;17,2;155,0917857;0;25;43,71;147
47,085;23,265;2,525;18,3;4,57;0,11;0,175;0,45;403;2,535;0;185;185;1081,558448;775,8415522;1857,4;145,3571429;58,14285714;145,3571429;11,5;30;14,8;133,4510714;0;25;50,73;109
47,085;23,265;2,525;18,3;4,57;0,11;0,175;0,45;403;2,535;0;205;205;1026,649881;769,150119;1795,8;161,0714286;64,42857143;161,0714286;11,5;30;16,4;147,8782143;0;25;47,28;116
47,085;23,265;2,525;18,3;4,57;0,11;0,175;0,45;403;2,535;0;225;225;971,9619525;760,5380475;1732,5;176,7857143;70,71428571;176,7857143;11,5;30;18;162,3053571;0;25;48,45;135
52,295;24,571;3,215;12,58;3,242;0,154;0,245;0,27;393,8;2,389;0;273;117;1057,564014;775,435986;1833;167,1428571;66,85714286;167,1428571;11,5;30;15,6;152,6014286;0;25;25,4;187
52,295;24,571;3,215;12,58;3,242;0,154;0,245;0,27;393,8;2,389;0;301;129;967,961046;795,038954;1763;184,2857143;73,71428571;184,2857143;11,5;30;17,2;168,2528571;0;25;23,62;204
49,69;23,918;2,87;15,44;3,906;0,132;0,21;0,36;398,4;2,462;0;222;148;1081,558448;775,8415522;1857,4;158,5714286;63,42857143;158,5714286;11,5;30;14,8;144,7757143;0;25;46,2;157
49,69;23,918;2,87;15,44;3,906;0,132;0,21;0,36;398,4;2,462;0;246;164;1026,649881;769,150119;1795,8;175,7142857;70,28571429;175,7142857;11,5;30;16,4;160,4271429;0;25;46,5;167
49,69;23,918;2,87;15,44;3,906;0,132;0,21;0,36;398,4;2,462;0;270;180;971,9619525;760,5380475;1732,5;192,8571429;77,14285714;192,8571429;11,5;30;18;176,0785714;0;25;45,68;205
47,085;23,265;2,525;18,3;4,57;0,11;0,175;0,45;403;2,535;0;195;195;1057,564014;775,435986;1833;167,1428571;66,85714286;167,1428571;11,5;30;15,6;152,6014286;0;25;47,13;151
47,085;23,265;2,525;18,3;4,57;0,11;0,175;0,45;403;2,535;0;215;215;967,961046;795,038954;1763;184,2857143;73,71428571;184,2857143;11,5;30;17,2;168,2528571;0;25;47,59;165
47,085;23,265;2,525;18,3;4,57;0,11;0,175;0,45;403;2,535;0;225;225;971,9619525;760,5380475;1732,5;192,8571429;77,14285714;192,8571429;11,5;30;18;176,0785714;0;25;47,64;185